39 1001
Wilson, Keith and Brassington, David
ACRU, Imperial College, Silwood Park, Ascot, Berks., UK
Formaldehyde Tunable Diode Laser Absorption Spectrometer, Mace Head
ACSOE OXICOA EASE 96
1 1
1996 7 29 1997 1 16
0
Time in Fractional Julian Day (GMT)
7
1 1 1.0 1.0 1 1.0 1
999 999 999 99999 999 99999 999
MONTH
DAY
TIME (hours)
FORMALDEHYDE (pptv) ; 6 minute average of 40 s data
N ; Number of 40 s data point contributing to average
STERROR (pptv) ; of the 6 minute average
ERROR FLAG
0
18
*******************************************************************************
NOTE THE MAIN HCHO DATA IS PRESENTED AS 1 HOUR AVERAGES IN FILE  mh960729.fm4. 
THE 6 MINUTE DATA IN THIS FILE IS NOT SIGNIFICANT WITHOUT FURTHER AVERAGING. 
IT IS PRESENTED FOR THOSE WISHING TO USE DIFFERENT AVERAGING TECHNIQUES FROM 
THE 1 HOUR BLOCK AVERAGES GIVEN IN MH960729.FM4.
*******************************************************************************
THIS-FILE-NAME=mh960729.fm5
THIS-FILE-VERSION=1
THIS-FILE-ENDS=1996 08 06
E-MAIL-CONTACT=k.m.wilson@ic.ac.uk
Alternative e-mail contact: d.brassington@ic.ac.uk
HCHO values are given as 6 minute averages of the 40 s raw data. 
N is the number of raw data points contributing to the average. (Always 9 in this file.)
The time stamp is the mid point of the 6 minute period.
The standard error is calculated as standard deviation of the 40 s data over the 6 minutes
divided by square root of N. It mainly reflects instrumental noise but will also include
any real variability of the HCHO concentration.
 Jday     Month  Day  Time   HCHOaverage  N   Standard-error-of-average Error-flag
 211.5054   07   29  12.129   1654.8994   9   1506.6755   0
 211.5100   07   29  12.239    346.4155   9   1193.1296   0
 211.5145   07   29  12.349   3418.6620   9   1332.5384   0
 211.5191   07   29  12.459   2653.9636   9   1496.7780   0
 211.5237   07   29  12.569   1457.8833   9   1234.9234   0
 211.5283   07   29  12.679   3704.5389   9    914.2986   0
 211.5329   07   29  12.789   1240.8647   9    748.7367   0
 211.5375   07   29  12.899    436.6923   9    526.3402   0
 211.5420   07   29  13.009   4176.4569   9   1550.5857   0
 211.5466   07   29  13.119   1593.6527   9   1157.7809   0
 211.5512   07   29  13.229   1139.9670   9   1274.9711   0
 211.5558   07   29  13.339    585.3837   9    539.7876   0
 211.5604   07   29  13.449   1443.8993   9    970.7545   0
 211.5650   07   29  13.559    162.4984   9    712.5163   0
 211.5695   07   29  13.669   1903.9574   9   1528.5294   0
 211.5741   07   29  13.779    550.3350   9   1143.5754   0
 211.5787   07   29  13.889   3366.9741   9    803.7493   0
 211.6944   07   29  16.666   1966.3559   9    628.8920   0
 211.6990   07   29  16.776   1880.4772   9    887.0537   0
 211.7036   07   29  16.886   1744.7599   9    994.2550   0
 211.7082   07   29  16.996    503.3278   9    780.3298   0
 211.7128   07   29  17.106    722.8644   9    944.2164   0
 211.7173   07   29  17.216    520.8331   9    459.7287   0
 211.7219   07   29  17.326   1234.4300   9    666.4314   0
 211.7265   07   29  17.436   1574.4440   9    912.5457   0
 211.7311   07   29  17.546   2738.4410   9   1279.6864   0
 211.7357   07   29  17.656   1424.1047   9    750.5086   0
 211.7403   07   29  17.766    815.3334   9    993.7610   0
 211.7448   07   29  17.876   1876.7702   9    400.8228   0
 211.7494   07   29  17.986    307.6807   9    689.8375   0
 211.7540   07   29  18.096   1143.1967   9   1001.1071   0
 211.7881   07   29  18.915   1029.8129   9    986.0334   0
 211.7927   07   29  19.025   1477.4009   9    674.3044   0
 211.7973   07   29  19.135  -1589.9870   9    783.5940   0
 211.8019   07   29  19.245   -426.5974   9    656.7712   0
 211.8065   07   29  19.355   -548.9367   9    771.6929   0
 211.8110   07   29  19.465   1051.8637   9    509.3778   0
 211.8156   07   29  19.575  -1012.8508   9    813.7175   0
 211.8202   07   29  19.685   -555.7216   9    608.2038   0
 211.8248   07   29  19.795   -653.8899   9    820.9443   0
 211.8294   07   29  19.905    362.1413   9    839.3832   0
 211.8340   07   29  20.015   1019.4236   9    664.3900   0
 211.8385   07   29  20.125   1143.0351   9    673.5911   0
 211.8431   07   29  20.235   -973.4139   9    701.8402   0
 211.8477   07   29  20.345    744.0011   9    544.1663   0
 211.8523   07   29  20.455   -263.9730   9   1274.6730   0
 211.8569   07   29  20.565   1246.7161   9    770.4379   0
 211.8615   07   29  20.675  -1151.7282   9   1108.6101   0
 211.8660   07   29  20.785   1996.2299   9    431.3369   0
 211.8706   07   29  20.895   -544.6962   9    662.6937   0
 211.8752   07   29  21.005   1693.0319   9    440.2583   0
 211.8798   07   29  21.115    940.9738   9    568.9847   0
 211.8844   07   29  21.225   1576.6294   9    551.0763   0
 211.8890   07   29  21.335   -114.0703   9    432.3996   0
 211.8935   07   29  21.445   1382.4131   9    524.8057   0
 211.8981   07   29  21.555    469.8508   9    672.3006   0
 211.9027   07   29  21.665    184.2511   9    374.4057   0
 211.9073   07   29  21.775    370.8344   9    746.5800   0
 211.9119   07   29  21.885   -531.1265   9    707.2443   0
 211.9165   07   29  21.995  -1567.9363   9    285.1102   0
 211.9210   07   29  22.105    -18.8704   9    628.0498   0
 211.9256   07   29  22.215    536.6392   9    806.1302   0
 211.9302   07   29  22.325   -638.6239   9   1054.5020   0
 211.9348   07   29  22.435   -133.5767   9    518.2540   0
 211.9394   07   29  22.545    350.2678   9    765.2027   0
 211.9440   07   29  22.655    450.9805   9    417.5278   0
 211.9485   07   29  22.765    856.3752   9    961.7269   0
 211.9531   07   29  22.875   1041.6864   9    500.3975   0
 211.9577   07   29  22.985    900.6888   9    452.8348   0
 211.9623   07   29  23.095    706.0484   9    534.7298   0
 211.9669   07   29  23.205    -85.2347   9    461.8328   0
 211.9715   07   29  23.315    928.4642   9    832.6748   0
 211.9760   07   29  23.425     32.0160   9    245.7602   0
 211.9806   07   29  23.535    210.3303   9    682.0949   0
 211.9852   07   29  23.645  -1292.7258   9    788.4791   0
 211.9898   07   29  23.755   1926.4732   9    519.4534   0
 211.9944   07   29  23.865    745.9094   9    464.2984   0
 211.9990   07   29  23.975   2255.1143   9    454.2411   0
 212.0035   07   30   0.085    309.1347   9    335.4480   0
 212.0081   07   30   0.195     57.4592   9    794.8887   0
 212.0127   07   30   0.305   -260.5806   9    391.8988   0
 212.0173   07   30   0.415   1259.0136   9    355.7051   0
 212.0219   07   30   0.525      9.5412   9    284.2710   0
 212.0265   07   30   0.635  -1132.6458   9    428.0837   0
 212.0310   07   30   0.745   -525.8258   9    355.9749   0
 212.0356   07   30   0.855    735.5201   9    606.6042   0
 212.0402   07   30   0.965   1032.9933   9    562.0304   0
 212.0448   07   30   1.075    270.5459   9    315.9874   0
 212.0494   07   30   1.185    347.9356   9    609.3154   0
 212.0540   07   30   1.295   -147.9945   9    316.1356   0
 212.0585   07   30   1.405   2171.9999   9    438.0506   0
 212.0631   07   30   1.515    711.7731   9    477.7793   0
 212.0677   07   30   1.625    497.4143   9    469.2348   0
 212.0723   07   30   1.735    581.8008   9    786.0588   0
 212.0769   07   30   1.845     -3.8165   9    320.9674   0
 212.0815   07   30   1.955    622.9340   9    650.0649   0
 212.0860   07   30   2.065    649.8614   9    604.1218   0
 212.0906   07   30   2.175   1419.0937   9    728.4116   0
 212.0952   07   30   2.285     22.6868   9    546.3637   0
 212.0998   07   30   2.395    247.2229   9    691.8129   0
 212.1044   07   30   2.505    102.8329   9    481.8186   0
 212.1090   07   30   2.615   1247.1401   9    455.1461   0
 212.1135   07   30   2.725    318.8879   9    287.7298   0
 212.1181   07   30   2.835    -92.4436   9    458.2134   0
 212.1227   07   30   2.945    818.4225   9    460.3482   0
 212.1273   07   30   3.055    305.3182   9    349.0992   0
 212.1319   07   30   3.165   1029.1768   9    316.8197   0
 212.1365   07   30   3.275    996.7368   9    466.0252   0
 212.1410   07   30   3.385    -28.8356   9    502.7007   0
 212.1456   07   30   3.495   -179.5865   9    386.7569   0
 212.1502   07   30   3.605    492.5377   9    579.1167   0
 212.1548   07   30   3.715    108.7696   9    704.8114   0
 212.1594   07   30   3.825    829.0238   9    459.4134   0
 212.1640   07   30   3.935    728.0991   9    495.1141   0
 212.1685   07   30   4.045   -312.7392   9    452.7902   0
 212.1731   07   30   4.155    216.9032   9    386.8517   0
 212.1777   07   30   4.265    772.2007   9    387.0313   0
 212.1823   07   30   4.375    696.9312   9    403.2338   0
 212.1869   07   30   4.485   2471.5934   9    550.5292   0
 212.1915   07   30   4.595   1560.7274   9    740.8146   0
 212.1960   07   30   4.705     67.2124   9    671.9227   0
 212.2006   07   30   4.815    574.8040   9    374.0552   0
 212.2052   07   30   4.925    226.2323   9    369.7675   0
 212.2098   07   30   5.035   -303.8340   9    650.7364   0
 212.2144   07   30   5.145   1149.3959   9    437.3674   0
 212.2190   07   30   5.255   1760.4564   9    428.9357   0
 212.2235   07   30   5.365   -168.5611   9    606.0620   0
 212.2281   07   30   5.475   1170.3865   9    418.2493   0
 212.2327   07   30   5.585    719.4061   9    568.7869   0
 212.2373   07   30   5.695    975.7461   9    357.2758   0
 212.2419   07   30   5.805      5.3007   9    478.0594   0
 212.2465   07   30   5.915    727.6751   9    471.0950   0
 212.2510   07   30   6.025    544.4842   9    255.6259   0
 212.2556   07   30   6.135    666.1874   9    845.7243   0
 212.2602   07   30   6.245   -506.3194   9    363.5562   0
 212.2648   07   30   6.355    219.8715   9    529.4426   0
 212.2694   07   30   6.465  -1230.6021   9    902.8519   0
 212.2740   07   30   6.575   -265.0332   9    528.0777   0
 212.2785   07   30   6.685   -832.2042   9    654.3935   0
 212.2831   07   30   6.795   -918.4990   9    552.3826   0
 212.2877   07   30   6.905   -614.6649   9    644.7257   0
 212.2923   07   30   7.015   -966.4170   9    709.4623   0
 212.2969   07   30   7.125   -676.7887   9    417.0773   0
 212.3015   07   30   7.235    526.8860   9    678.2254   0
 212.3060   07   30   7.345   -117.0387   9    597.1597   0
 212.3106   07   30   7.455   1672.4654   9    583.8864   0
 212.3152   07   30   7.565   1238.6591   9    712.4287   0
 212.3198   07   30   7.675   -126.5798   9    445.5746   0
 212.3244   07   30   7.785    762.6595   9    763.0898   0
 212.3290   07   30   7.895    400.3061   9    448.6662   0
 212.3335   07   30   8.005    -71.2409   9    441.9269   0
 212.3381   07   30   8.115   -592.1901   9    547.4299   0
 212.3427   07   30   8.225   -470.9110   9    573.2957   0
 212.3473   07   30   8.335  -2077.6481   9    431.6091   0
 212.3519   07   30   8.445    795.9476   9    545.5162   0
 212.3565   07   30   8.555   1185.2284   9    411.8700   0
 212.4234   07   30  10.161    906.1592   9    804.1837   0
 212.4280   07   30  10.271    575.7405   9    544.2814   0
 212.4325   07   30  10.381   -233.6514   9    234.7631   0
 212.4371   07   30  10.491     25.2859   9    756.0511   0
 212.4417   07   30  10.601  -1309.5179   9    703.5664   0
 212.4463   07   30  10.711   -908.1042   9    548.1646   0
 212.4509   07   30  10.821    798.2078   9    567.9353   0
 212.4555   07   30  10.931   -133.7235   9    909.3719   0
 212.5169   07   30  12.406    -80.8994   9   1082.0885   0
 212.5215   07   30  12.516  -1368.3410   9   1301.7371   0
 212.5261   07   30  12.626    290.8407   9   1025.0065   0
 212.5307   07   30  12.736   1050.6993   9    726.9906   0
 212.5353   07   30  12.846   -568.2809   9    961.8277   0
 212.5398   07   30  12.956   1603.3462   9    766.0279   0
 212.5444   07   30  13.066    609.7232   9    699.6262   0
 212.5490   07   30  13.176   -952.9252   9    843.1315   0
 212.5536   07   30  13.286  -2142.3445   9    679.6247   0
 212.5582   07   30  13.396   -893.1192   9    501.1729   0
 212.5628   07   30  13.506  -1161.6257   9    655.0512   0
 212.5673   07   30  13.616     21.3416   9    803.3595   0
 212.5719   07   30  13.726   -224.0863   9    512.3662   0
 212.5765   07   30  13.836   -563.3177   9    452.7857   0
 212.5811   07   30  13.946   1503.3387   9    823.5485   0
 212.5857   07   30  14.056   -483.4110   9    697.8051   0
 212.5903   07   30  14.166    849.1953   9    681.1259   0
 212.5948   07   30  14.276   -964.8367   9    405.8334   0
 212.5994   07   30  14.386    336.7499   9    691.5405   0
 212.6040   07   30  14.496    672.0108   9    546.7095   0
 212.6086   07   30  14.606    769.2885   9    322.2056   0
 212.6132   07   30  14.716   1524.9284   9    694.8693   0
 212.6178   07   30  14.826   1492.9161   9    408.2600   0
 212.6223   07   30  14.936   1392.1641   9    519.6059   0
 212.6269   07   30  15.046    967.3183   9    680.9203   0
 212.6315   07   30  15.156   2555.2788   9    869.3373   0
 212.6361   07   30  15.266    282.6515   9    595.9013   0
 212.6407   07   30  15.376   1053.9253   9    643.7495   0
 212.6453   07   30  15.486    581.4332   9    362.9234   0
 212.6498   07   30  15.596   -783.9298   9    969.4339   0
 212.6544   07   30  15.706   1232.3506   9   1027.2462   0
 212.6590   07   30  15.816   1522.9432   9    673.5991   0
 212.6636   07   30  15.926    680.2000   9    475.6287   0
 212.6682   07   30  16.036   2264.4381   9    744.5101   0
 212.6728   07   30  16.146      0.9926   9    449.5959   0
 212.6773   07   30  16.256    379.6811   9    530.3039   0
 212.7013   07   30  16.830   -369.0210   9    541.8978   0
 212.7058   07   30  16.940   -886.7275   9    421.5639   0
 212.7104   07   30  17.050   -610.4301   9    858.4553   0
 212.7150   07   30  17.160   1237.4848   9    811.0148   0
 212.7196   07   30  17.270    239.0675   9    579.3837   0
 212.7242   07   30  17.380   2029.3814   9    804.3141   0
 212.7288   07   30  17.490    921.1476   9    352.2081   0
 212.7333   07   30  17.600    157.1149   9    247.4219   0
 212.7379   07   30  17.710   1298.8322   9   1175.9565   0
 212.7425   07   30  17.820    781.1257   9    416.2140   0
 212.7471   07   30  17.930    845.7512   9    794.7567   0
 212.7517   07   30  18.040   1639.0527   9    602.4092   0
 212.7691   07   30  18.458    877.3615   9    623.2238   0
 212.7803   07   30  18.727    363.8825   9    581.7666   0
 212.7849   07   30  18.837   -115.0060   9    453.9447   0
 212.7895   07   30  18.947   1337.1149   9    387.5808   0
 212.7940   07   30  19.057   1950.7831   9    577.6560   0
 212.7986   07   30  19.167   3129.4807   9    667.4885   0
 212.8032   07   30  19.277   1284.3849   9    443.7111   0
 212.8078   07   30  19.387    148.4168   9    367.1354   0
 212.8124   07   30  19.497   -260.6954   9    399.4040   0
 212.8170   07   30  19.607    -49.0935   9    625.1444   0
 212.8215   07   30  19.717    567.9840   9    454.9540   0
 212.8261   07   30  19.827     -0.6819   9    378.4808   0
 212.8307   07   30  19.937   1625.9935   9    671.3282   0
 212.8353   07   30  20.047   2145.5659   9    481.3967   0
 212.8399   07   30  20.157    602.7586   9    427.0029   0
 212.8445   07   30  20.267   1430.0742   9    610.2672   0
 212.8490   07   30  20.377   1477.5767   9    504.6617   0
 212.8536   07   30  20.487    775.0402   9    529.9288   0
 212.8582   07   30  20.597    708.9004   9    470.9926   0
 212.8628   07   30  20.707   1027.5533   9    547.2671   0
 212.8674   07   30  20.817    938.0032   9    360.9182   0
 212.8720   07   30  20.927    969.1412   9    536.9941   0
 212.8765   07   30  21.037    470.4790   9    689.6405   0
 212.8811   07   30  21.147     54.0937   9    310.7108   0
 212.8857   07   30  21.257   -945.2763   9    443.5061   0
 212.8903   07   30  21.367   -148.4168   9    478.8251   0
 212.8949   07   30  21.477    276.1507   9    439.2050   0
 212.8995   07   30  21.587   1201.4260   9    371.1010   0
 212.9040   07   30  21.697   -577.5300   9    417.3568   0
 212.9086   07   30  21.807    727.7651   9    477.8309   0
 212.9132   07   30  21.917   1310.7499   9    354.9344   0
 212.9178   07   30  22.027   1322.5687   9    490.1596   0
 212.9224   07   30  22.137   1217.5632   9    429.9852   0
 212.9270   07   30  22.247    983.9147   9    446.5896   0
 212.9315   07   30  22.357      7.7277   9    545.4702   0
 212.9361   07   30  22.467    673.6713   9    580.0863   0
 212.9407   07   30  22.577   -713.4461   9    431.0376   0
 212.9453   07   30  22.687   -426.6131   9    443.3822   0
 212.9499   07   30  22.797    231.1484   9    368.1763   0
 212.9545   07   30  22.907    568.2113   9    434.7423   0
 212.9590   07   30  23.017   -392.2931   9    374.4200   0
 212.9636   07   30  23.127   -114.0968   9    273.3886   0
 212.9682   07   30  23.237    304.5613   9    299.9091   0
 212.9728   07   30  23.347   -122.5064   9    440.3669   0
 212.9774   07   30  23.457   -236.8305   9    424.1485   0
 212.9820   07   30  23.567    515.7086   9    519.6640   0
 212.9865   07   30  23.677    462.7513   9    411.2603   0
 212.9911   07   30  23.787    712.9916   9    562.8660   0
 212.9957   07   30  23.897   -267.9685   9    488.1068   0
 213.0003   07   31   0.007   -950.0493   9    405.2706   0
 213.0049   07   31   0.117     56.8211   9    599.3303   0
 213.0095   07   31   0.227    514.5722   9    342.8697   0
 213.0140   07   31   0.337   -197.0557   9    491.8535   0
 213.0186   07   31   0.447   1418.0282   9    437.3381   0
 213.0232   07   31   0.557    377.7469   9    779.0664   0
 213.0278   07   31   0.667   1728.2715   9    544.3141   0
 213.0324   07   31   0.777   -732.3107   9    687.2118   0
 213.0370   07   31   0.887   1394.6179   9    570.0017   0
 213.0415   07   31   0.997   1196.6530   9    554.5342   0
 213.0461   07   31   1.107    386.6110   9    363.9058   0
 213.0507   07   31   1.217   1117.5580   9    430.0006   0
 213.0553   07   31   1.327    -62.7305   9    605.3881   0
 213.0599   07   31   1.437   -280.2418   9    254.5931   0
 213.0645   07   31   1.547   -253.1950   9    645.8607   0
 213.0690   07   31   1.657   1108.4666   9    608.1586   0
 213.0736   07   31   1.767    817.0879   9    580.4206   0
 213.0782   07   31   1.877   1068.4646   9    313.7292   0
 213.0828   07   31   1.987   -151.5988   9    697.2212   0
 213.0874   07   31   2.097   1474.8493   9    493.6453   0
 213.0920   07   31   2.207    -56.5938   9    570.9746   0
 213.0965   07   31   2.317   1696.2244   9    358.0655   0
 213.1011   07   31   2.427    959.1407   9    418.2347   0
 213.1057   07   31   2.537    375.0195   9    575.1077   0
 213.1103   07   31   2.647    420.7037   9    414.2771   0
 213.1149   07   31   2.757    -15.0008   9    621.7259   0
 213.1195   07   31   2.867   1317.7957   9    578.7767   0
 213.1240   07   31   2.977    672.7622   9    451.0927   0
 213.1286   07   31   3.087   1066.8736   9    527.8831   0
 213.1332   07   31   3.197    719.5828   9    534.1351   0
 213.1378   07   31   3.307   1042.5541   9    374.6824   0
 213.1424   07   31   3.417    902.3196   9    392.5259   0
 213.1470   07   31   3.527   1258.0199   9    305.4752   0
 213.1515   07   31   3.637   2041.0151   9    572.9473   0
 213.1561   07   31   3.747   1421.8920   9    347.8231   0
 213.1607   07   31   3.857   -245.0127   9    466.7510   0
 213.1653   07   31   3.967     46.3660   9    472.3671   0
 213.1699   07   31   4.077    756.4029   9    600.9750   0
 213.1745   07   31   4.187    484.7979   9    429.2429   0
 213.1790   07   31   4.297   -648.4428   9    623.7261   0
 213.1836   07   31   4.407    689.8085   9    462.6660   0
 213.1882   07   31   4.517    404.5665   9    639.8450   0
 213.1928   07   31   4.627    172.9635   9    686.2929   0
 213.1974   07   31   4.737  -1055.2821   9    679.8051   0
 213.2020   07   31   4.847    492.9801   9    757.3578   0
