22 1001
Lightman Paul
ACRU Imperial College, TTC, Silwood Park, Ascot, Berks SL5 7PW
Rosemount Outside Air Temperature Sensor
ACSOE OXICOA EASE96
1 1
1996 7 24 1997 2 28
0  (1 gap between logged files)
Time in fractional Julian day (GMT Timebase)
2
1 1
999999 99.9
Time GMT hhmmss
Outside Air Temperature Deg Celsius
1
1 data gap between logged files
6
THIS-FILE-NAME=js960724.mt5
THIS-FILE-VERSION=1
THIS-FILE-ENDS=1996 07 24
E-MAIL-CONTACT=p.lightman@ic.ac.uk
Time GMT   Time GMT  Air T
215.41103    95153    17.3
215.41106    95155    17.3
215.41107    95157    17.3
215.41110    95159    17.3
215.41112    95201    17.2
215.41115    95203    17.2
215.41116    95205    17.2
215.41119    95207    17.2
215.41121    95209    17.2
215.41124    95211    17.2
215.41125    95213    17.2
215.41129    95215    17.2
215.41130    95217    17.2
215.41133    95219    17.2
215.41136    95221    17.2
215.41138    95223    17.2
215.41141    95225    17.1
215.41142    95227    17.1
215.41145    95229    17.1
215.41147    95231    17.1
215.41150    95233    17.1
215.41151    95235    17.1
215.41154    95237    17.1
215.41156    95239    17.1
215.41159    95241    17.1
215.41161    95243    17.1
215.41164    95245    17.1
215.41165    95247    17.1
215.41168    95249    17.0
215.41170    95251    17.0
215.41173    95253    17.0
215.41174    95255    17.0
215.41177    95257    17.0
215.41179    95259    17.0
215.41182    95301    17.0
215.41183    95303    17.0
215.41187    95305    17.0
215.41188    95307    17.0
215.41191    95309    17.0
215.41193    95311    17.0
215.41196    95313    16.9
215.41197    95315    16.9
215.41200    95317    16.9
215.41203    95319    16.9
215.41205    95321    16.9
215.41208    95323    16.9
215.41209    95325    16.9
215.41212    95327    16.9
215.41214    95329    16.9
215.41217    95331    16.9
215.41219    95333    16.9
215.41222    95335    16.9
215.41223    95337    16.8
215.41226    95339    16.8
215.41228    95341    16.8
215.41231    95343    16.8
215.41232    95345    16.8
215.41235    95347    16.8
215.41237    95349    16.8
215.41240    95351    16.8
215.41241    95353    16.8
215.41245    95355    16.8
215.41246    95357    16.8
215.41249    95359    16.8
215.41251    95401    16.7
215.41254    95403    16.7
215.41255    95405    16.7
215.41258    95407    16.7
215.41260    95409    16.7
215.41263    95411    16.7
215.41264    95413    16.7
215.41267    95415    16.7
215.41269    95417    16.7
215.41272    95419    16.7
215.41275    95421    16.7
215.41277    95423    16.7
215.41280    95425    16.6
215.41281    95427    16.6
215.41284    95429    16.6
215.41286    95431    16.6
215.41289    95433    16.6
215.41290    95435    16.6
215.41293    95437    16.6
215.41295    95439    16.6
215.41298    95441    16.6
215.41299    95443    16.6
215.41302    95445    16.6
215.41304    95447    16.6
215.41307    95449    16.5
215.41309    95451    16.5
215.41312    95453    16.5
215.41313    95455    16.5
215.41316    95457    16.5
215.41318    95459    16.5
215.41321    95501    16.5
215.41322    95503    16.5
215.41325    95505    16.5
215.41327    95507    16.5
215.41330    95509    16.5
215.41331    95511    16.5
215.41335    95513    16.4
215.41336    95515    16.4
215.41339    95517    16.4
215.41342    95519    16.4
215.41344    95521    16.4
215.41347    95523    16.4
215.41348    95525    16.4
215.41351    95527    16.4
215.41353    95529    16.4
215.41356    95531    16.4
215.41357    95533    16.4
215.41360    95535    16.4
215.41362    95537    16.3
215.41365    95539    16.3
215.41367    95541    16.3
215.41370    95543    16.3
215.41371    95545    16.3
215.41374    95547    16.3
215.41376    95549    16.3
215.41379    95551    16.3
215.41380    95553    16.3
215.41383    95555    16.3
215.41385    95557    16.3
215.41388    95559    16.3
215.41389    95601    16.2
215.41393    95603    16.2
215.41394    95605    16.2
215.41397    95607    16.2
215.41399    95609    16.2
215.41402    95611    16.2
215.41403    95613    16.2
215.41406    95615    16.2
215.41409    95617    16.2
215.41411    95619    16.2
215.41414    95621    16.2
215.41415    95623    16.2
215.41418    95625    16.1
215.41420    95627    16.1
215.41423    95629    16.1
215.41425    95631    16.1
215.41428    95633    16.1
215.41429    95635    16.1
215.41432    95637    16.1
215.41434    95639    16.1
215.41437    95641    16.1
215.41438    95643    16.1
215.41441    95645    16.1
215.41443    95647    16.1
215.41446    95649    16.0
215.41447    95651    16.0
215.41451    95653    16.0
215.41452    95655    16.0
215.41455    95657    16.0
215.41457    95659    16.0
215.41460    95701    16.0
215.41461    95703    16.0
215.41464    95705    16.0
215.41466    95707    16.0
215.41469    95709    16.0
215.41470    95711    16.0
215.41473    95713    15.9
215.41476    95715    15.9
215.41478    95717    15.9
215.41481    95719    15.9
215.41483    95721    15.9
215.41486    95723    15.9
215.41487    95725    15.9
215.41490    95727    15.9
215.41492    95729    15.9
215.41495    95731    15.9
215.41496    95733    15.9
215.41499    95735    15.9
215.41501    95737    15.8
215.41504    95739    15.8
215.41505    95741    15.8
215.41508    95743    15.8
215.41510    95745    15.8
215.41513    95747    15.8
215.41515    95749    15.8
215.41518    95751    15.8
215.41519    95753    15.8
215.41522    95755    15.8
215.41524    95757    15.8
215.41527    95759    15.8
215.41528    95801    15.7
215.41531    95803    15.7
215.41533    95805    15.7
215.41536    95807    15.7
215.41537    95809    15.7
215.41541    95811    15.7
215.41544    95813    15.7
215.41545    95815    15.7
215.41548    95817    15.7
215.41550    95819    15.7
215.41553    95821    15.7
215.41554    95823    15.7
215.41557    95825    15.6
215.41559    95827    15.6
215.41562    95829    15.6
215.41563    95831    15.6
215.41566    95833    15.6
215.41568    95835    15.6
215.41571    95837    15.6
215.41573    95839    15.6
215.41576    95841    15.6
215.41577    95843    15.6
215.41580    95845    15.6
215.41582    95847    15.6
215.41585    95849    15.5
215.41586    95851    15.5
215.41589    95853    15.5
215.41591    95855    15.5
215.41594    95857    15.5
215.41595    95859    15.5
215.41599    95901    15.5
215.41600    95903    15.5
215.41603    95905    15.5
215.41605    95907    15.5
215.41608    95909    15.5
215.41611    95911    15.5
215.41612    95913    15.4
215.41615    95915    15.4
215.41617    95917    15.4
215.41620    95919    15.4
215.41621    95921    15.4
215.41624    95923    15.4
215.41626    95925    15.4
215.41629    95927    15.4
215.41631    95929    15.4
215.41634    95931    15.4
215.41635    95933    15.4
215.41638    95935    15.4
215.41640    95937    15.3
215.41643    95939    15.3
215.41644    95941    15.3
215.41647    95943    15.3
215.41649    95945    15.3
215.41652    95947    15.3
215.41653    95949    15.3
215.41656    95951    15.3
215.41658    95953    15.3
215.41661    95955    15.3
215.41663    99957    15.3
215.41666    99959    15.3
215.41667   100001    15.2
215.41670   100003    15.2
215.41672   100005    15.2
215.41675   100007    15.2
215.41676   100009    15.2
215.41679   100011    15.2
215.41682   100013    15.2
215.41684   100015    15.2
215.41687   100017    15.2
215.41689   100019    15.2
215.41692   100021    15.2
215.41693   100023    15.2
215.41696   100025    15.1
215.41698   100027    15.1
215.41701   100029    15.1
215.41702   100031    15.1
215.41705   100033    15.1
215.41707   100035    15.1
215.41710   100037    15.1
215.41711   100039    15.1
215.41714   100041    15.1
215.41716   100043    15.1
215.41719   100045    15.1
215.41721   100047    15.1
215.41724   100049    15.0
215.41725   100051    15.0
215.41728   100053    15.0
215.41730   100055    15.0
215.41733   100057    15.0
215.41734   100059    15.0
215.41737   100101    15.0
215.41739   100103    14.9
215.41742   100105    14.9
215.41743   100107    14.8
215.41747   100109    14.8
215.41750   100111    14.7
215.41751   100113    14.7
215.41754   100115    14.6
215.41756   100117    14.6
215.41759   100119    14.5
215.41760   100121    14.4
215.41763   100123    14.4
215.41765   100125    14.3
215.41768   100127    14.3
215.41769   100129    14.2
215.41772   100131    14.2
215.41774   100133    14.1
215.41777   100135    14.1
215.41779   100137    14.0
215.41782   100139    14.0
215.41783   100141    13.9
215.41786   100143    13.8
215.41788   100145    13.7
215.41791   100147    13.7
215.41792   100149    13.6
215.41795   100151    13.5
215.41797   100153    13.4
215.41800   100155    13.3
215.41801   100157    13.3
215.41805   100159    13.2
215.41806   100201    13.1
215.41809   100203    13.0
215.41811   100205    12.9
215.41814   100207    12.8
215.41817   100209    12.7
215.41818   100211    12.6
215.41821   100213    12.5
215.41823   100215    12.4
215.41826   100217    12.2
215.41827   100219    12.1
215.41830   100221    12.0
215.41832   100223    11.9
215.41835   100225    11.8
215.41837   100227    11.6
215.41840   100229    11.5
215.41841   100231    11.4
215.41844   100233    11.3
215.41846   100235    11.2
215.41849   100237    11.1
215.41850   100239    11.0
215.41853   100241    10.9
215.41855   100243    10.8
215.41858   100245    10.8
215.41859   100247    10.7
215.41862   100249    10.6
215.41864   100251    10.6
215.41867   100253    10.5
215.41869   100255    10.5
215.41872   100257    10.4
215.41873   100259    10.3
215.41876   100301    10.3
215.41878   100303    10.2
215.41881   100305    10.1
215.41884   100307    10.1
215.41885   100309    10.0
215.41888   100311     9.9
215.41890   100313     9.9
215.41893   100315     9.8
215.41895   100317     9.7
215.41898   100319     9.7
215.41899   100321     9.6
215.41902   100323     9.5
215.41904   100325     9.5
215.41907   100327     9.4
215.41908   100329     9.4
215.41911   100331     9.3
215.41913   100333     9.2
215.41916   100335     9.2
215.41917   100337     9.1
215.41920   100339     9.0
215.41922   100341     9.0
215.41925   100343     8.9
215.41927   100345     8.8
215.41930   100347     8.7
215.41931   100349     8.7
215.41934   100351     8.6
215.41936   100353     8.5
215.41939   100355     8.4
215.41940   100357     8.3
215.41943   100359     8.3
215.41945   100401     8.2
215.41948   100403     8.1
215.41951   100405     8.0
215.41953   100407     8.0
215.41956   100409     8.0
215.41957   100411     8.0
215.41960   100413     8.0
215.41962   100415     8.1
215.41965   100417     8.1
215.41966   100419     8.1
215.41969   100421     8.2
215.41971   100423     8.2
215.41974   100425     8.2
215.41975   100427     8.2
215.41978   100429     8.3
215.41980   100431     8.3
215.41983   100433     8.3
215.41985   100435     8.4
215.41988   100437     8.4
215.41989   100439     8.4
215.41992   100441     8.5
215.41994   100443     8.5
215.41997   100445     8.5
215.41998   100447     8.5
215.42001   100449     8.6
215.42003   100451     8.6
215.42006   100453     8.6
215.42007   100455     8.7
215.42010   100457     8.7
215.42012   100459     8.7
215.42015   100501     8.8
215.42017   100503     8.8
215.42020   100505     8.8
215.42023   100507     8.8
215.42024   100509     8.9
215.42027   100511     8.9
215.42029   100513     8.9
215.42032   100515     9.0
215.42033   100517     9.0
215.42036   100519     9.0
215.42038   100521     9.0
215.42041   100523     9.0
215.42043   100525     9.0
215.42046   100527     9.0
215.42047   100529     9.0
215.42050   100531     9.0
215.42052   100533     9.0
215.42055   100535     9.0
215.42056   100537     9.0
215.42059   100539     9.0
215.42061   100541     9.0
215.42064   100543     9.0
215.42065   100545     9.0
215.42068   100547     9.0
215.42070   100549     9.0
215.42073   100551     9.0
215.42075   100553     9.0
215.42078   100555     9.0
215.42079   100557     9.0
215.42082   100559     9.0
215.42084   100601     9.0
215.42087   100603     9.0
215.42090   100605     9.0
215.42091   100607     9.0
215.42094   100609     9.0
215.42096   100611     9.0
215.42099   100613     9.0
215.42101   100615     9.0
215.42104   100617     9.0
215.42105   100619     9.0
215.42108   100621     9.0
215.42110   100623     9.0
215.42113   100625     9.0
215.42114   100627     9.0
215.42117   100629     9.0
215.42119   100631     8.9
215.42122   100633     8.9
215.42123   100635     8.8
215.42126   100637     8.8
215.42128   100639     8.7
215.42131   100641     8.6
215.42133   100643     8.6
215.42136   100645     8.5
215.42137   100647     8.5
215.42140   100649     8.4
215.42142   100651     8.4
215.42145   100653     8.3
215.42146   100655     8.2
215.42149   100657     8.2
215.42151   100659     8.1
215.42154   100701     8.1
215.42157   100703     8.0
215.42159   100705     8.0
215.42162   100707     8.0
215.42163   100709     8.0
215.42166   100711     8.0
215.42168   100713     8.0
215.42171   100715     8.0
215.42172   100717     8.0
215.42175   100719     8.0
215.42177   100721     8.0
215.42180   100723     8.0
215.42181   100725     8.0
215.42184   100727     8.0
215.42186   100729     8.0
215.42189   100731     8.0
215.42191   100733     8.0
215.42194   100735     8.0
215.42195   100737     8.0
215.42198   100739     8.0
215.42200   100741     8.0
215.42203   100743     8.0
215.42204   100745     8.0
215.42207   100747     8.0
215.42209   100749     8.0
215.42212   100751     8.0
215.42213   100753     8.0
215.42216   100755     8.0
215.42218   100757     8.0
215.42221   100759     8.0
215.42224   100801     8.0
215.42226   100803     8.0
215.42229   100805     8.0
215.42230   100807     8.0
215.42233   100809     8.0
215.42235   100811     8.0
215.42238   100813     8.0
215.42239   100815     8.0
215.42242   100817     8.0
215.42244   100819     8.0
215.42247   100821     8.0
215.42249   100823     8.0
215.42252   100825     8.0
215.42253   100827     8.0
215.42256   100829     8.0
215.42258   100831     8.0
215.42261   100833     8.0
215.42262   100835     8.0
215.42265   100837     8.0
215.42267   100839     8.0
215.42270   100841     8.0
215.42271   100843     8.0
215.42274   100845     8.0
215.42276   100847     8.0
215.42279   100849     8.0
215.42281   100851     8.0
215.42284   100853     8.0
215.42285   100855     8.0
215.42288   100857     7.9
215.42291   100859     7.9
215.42293   100901     7.8
215.42296   100903     7.7
215.42297   100905     7.7
215.42300   100907     7.6
215.42302   100909     7.6
215.42305   100911     7.5
215.42307   100913     7.4
215.42310   100915     7.4
215.42311   100917     7.3
215.42314   100919     7.3
215.42316   100921     7.2
215.42319   100923     7.1
215.42320   100925     7.1
215.42323   100927     7.0
215.42325   100929     7.0
215.42328   100931     6.9
215.42329   100933     6.9
215.42332   100935     6.8
215.42334   100937     6.8
215.42337   100939     6.7
215.42339   100941     6.6
215.42342   100943     6.6
215.42343   100945     6.5
215.42346   100947     6.5
215.42348   100949     6.4
215.42351   100951     6.4
215.42352   100953     6.3
215.42355   100955     6.3
215.42358   100957     6.2
215.42360   100959     6.2
215.42363   101001     6.1
215.42365   101003     6.1
215.42368   101005     6.0
215.42369   101007     6.0
215.42372   101009     6.0
215.42374   101011     6.0
215.42377   101013     6.0
215.42378   101015     6.0
215.42381   101017     6.0
215.42383   101019     6.0
215.42386   101021     6.0
215.42387   101023     6.0
215.42390   101025     6.0
215.42392   101027     6.0
215.42395   101029     6.0
215.42397   101031     6.0
215.42400   101033     6.0
215.42401   101035     6.0
215.42404   101037     6.0
215.42406   101039     6.0
215.42409   101041     6.0
215.42410   101043     6.0
215.42413   101045     6.0
215.42415   101047     6.0
215.42418   101049     6.0
215.42419   101051     6.0
215.42422   101053     6.0
215.42424   101055     6.0
215.42427   101057     6.0
215.42430   101059     6.0
215.42432   101101     6.0
215.42435   101103     6.0
215.42436   101105     6.0
215.42439   101107     6.0
215.42441   101109     6.0
215.42444   101111     6.0
215.42445   101113     6.0
215.42448   101115     6.0
215.42450   101117     6.0
215.42453   101119     6.0
215.42455   101121     6.0
215.42458   101123     6.0
215.42459   101125     6.0
215.42462   101127     6.0
215.42464   101129     6.0
215.42467   101131     6.0
215.42468   101133     6.0
215.42471   101135     6.0
215.42473   101137     6.0
215.42476   101139     6.0
215.42477   101141     6.0
215.42480   101143     6.0
215.42482   101145     6.0
215.42485   101147     6.0
215.42487   101149     6.0
215.42490   101151     6.0
215.42491   101153     6.0
215.42494   101155     6.0
215.42497   101157     6.0
215.42499   101159     6.0
215.42502   101201     6.0
215.42503   101203     6.0
215.42506   101205     6.0
215.42508   101207     6.0
215.42511   101209     6.0
215.42513   101211     6.0
215.42516   101213     6.0
215.42517   101215     6.0
215.42520   101217     6.0
215.42522   101219     6.0
215.42525   101221     6.0
215.42526   101223     6.0
215.42529   101225     6.0
215.42531   101227     6.0
215.42534   101229     6.0
215.42535   101231     6.0
215.42538   101233     6.0
215.42540   101235     6.0
215.42543   101237     6.0
215.42545   101239     6.0
215.42548   101241     6.0
215.42549   101243     6.0
215.42552   101245     6.0
215.42554   101247     6.0
215.42557   101249     6.0
215.42558   101251     6.0
215.42561   101253     6.0
215.42564   101255     6.0
215.42566   101257     6.0
215.42569   101259     6.0
215.42570   101301     6.0
215.42574   101303     6.0
215.42575   101305     6.0
215.42578   101307     6.0
215.42580   101309     6.0
215.42583   101311     6.0
215.42584   101313     6.0
215.42587   101315     6.0
215.42589   101317     6.0
215.42592   101319     6.0
215.42593   101321     6.0
215.42596   101323     6.0
215.42598   101325     6.0
215.42601   101327     6.0
215.42603   101329     6.0
215.42606   101331     6.0
215.42607   101333     6.0
215.42610   101335     6.0
215.42612   101337     6.0
215.42615   101339     6.0
215.42616   101341     6.0
215.42619   101343     6.0
215.42621   101345     6.0
215.42624   101347     6.0
215.42625   101349     6.0
215.42628   101351     6.0
215.42632   101353     6.0
215.42633   101355     6.0
215.42636   101357     6.0
215.42638   101359     6.0
215.42641   101401     6.0
215.42642   101403     6.0
215.42645   101405     6.0
215.42647   101407     6.0
215.42650   101409     6.0
215.42651   101411     6.0
215.42654   101413     6.0
215.42656   101415     6.0
215.42659   101417     6.0
215.42661   101419     6.0
215.42664   101421     6.0
215.42665   101423     6.0
215.42668   101425     6.0
215.42670   101427     6.0
215.42673   101429     6.0
215.42674   101431     6.0
215.42677   101433     6.0
215.42679   101435     6.0
215.42682   101437     6.0
215.42683   101439     6.0
215.42686   101441     6.0
215.42688   101443     6.0
215.42691   101445     6.0
215.42693   101447     6.0
215.42696   101449     6.0
215.42699   101451     6.0
215.42700   101453     6.0
215.42703   101455     6.0
215.42705   101457     6.0
215.42708   101459     6.0
215.42709   101501     6.0
215.42712   101503     6.0
215.42714   101505     6.0
215.42717   101507     6.0
215.42719   101509     6.0
215.42722   101511     6.0
215.42723   101513     6.0
215.42726   101515     6.0
215.42728   101517     6.0
215.42731   101519     6.0
215.42732   101521     6.0
215.42735   101523     6.0
215.42737   101525     6.0
215.42740   101527     6.0
215.42741   101529     6.0
215.42744   101531     6.0
215.42746   101533     6.0
215.42749   101535     6.0
215.42751   101537     6.0
215.42754   101539     6.0
215.42755   101541     6.0
215.42758   101543     6.0
215.42760   101545     6.0
215.42763   101547     6.0
215.42766   101549     6.0
215.42767   101551     6.0
215.42770   101553     6.0
215.42772   101555     6.0
